Record Length,Analog:2160
Sample Interval,CH1:0.0000000010000
Vertical Units,CH1:V
Vertical Scale,CH1:0.00
Vertical Offset,CH1:-0.00152
Horizontal Units,us
Horizontal Scale,0.2
Model Number,SDS1204X-E
Serial Number,SDSMMFCX5R6567
Software Version,8.1.6.1.26
Source,CH1
Second,Volt
0.00000064,0.01168
0.000000641,0.01168
0.000000642,0.01168
0.000000643,0.01168
0.000000644,0.01168
0.000000645,0.01168
0.000000646,0.01168
0.000000647,0.01168
0.000000648,0.01168
0.000000649,0.01168
0.00000065,0.01168
0.000000651,0.01168
0.000000652,0.01168
0.000000653,0.01168
0.000000654,0.01168
0.000000655,0.01168
0.000000656,0.01168
0.000000657,0.01168
0.000000658,0.01168
0.000000659,0.01168
0.00000066,0.01168
0.000000661,0.01168
0.000000662,0.01168
0.000000663,0.01168
0.000000664,0.01168
0.000000665,0.01168
0.000000666,0.01168
0.000000667,0.01168
0.000000668,0.01168
0.000000669,0.01168
0.00000067,0.01168
0.000000671,0.01168
0.000000672,0.01168
0.000000673,0.01168
0.000000674,0.01168
0.000000675,0.01168
0.000000676,0.01168
0.000000677,0.01168
0.000000678,0.01168
0.000000679,0.01168
0.00000068,0.01168
0.000000681,0.01168
0.000000682,0.01168
0.000000683,0.01168
0.000000684,0.01168
0.000000685,0.01168
0.000000686,0.01168
0.000000687,0.01168
0.000000688,0.01168
0.000000689,0.01168
0.00000069,0.01168
0.000000691,0.01168
0.000000692,0.01168
0.000000693,0.01168
0.000000694,0.01168
0.000000695,0.01168
0.000000696,0.01168
0.000000697,0.01168
0.000000698,0.01168
0.000000699,0.01168
0.0000007,0.01168
0.000000701,0.01168
0.000000702,0.01168
0.000000703,0.01168
0.000000704,0.01168
0.000000705,0.01168
0.000000706,0.01168
0.000000707,0.01168
0.000000708,0.01168
0.000000709,0.01168
0.00000071,0.01168
0.000000711,0.01168
0.000000712,0.01168
0.000000713,0.01168
0.000000714,0.01168
0.000000715,0.01168
0.000000716,0.01168
0.000000717,0.01168
0.000000718,0.01168
0.000000719,0.01168
0.00000072,0.01168
0.000000721,0.01168
0.000000722,0.01168
0.000000723,0.01168
0.000000724,0.01168
0.000000725,0.01168
0.000000726,0.01168
0.000000727,0.01168
0.000000728,0.01168
0.000000729,0.01168
0.00000073,0.01168
0.000000731,0.01168
0.000000732,0.01168
0.000000733,0.01168
0.000000734,0.01168
0.000000735,0.01168
0.000000736,0.01168
0.000000737,0.01168
0.000000738,0.01168
0.000000739,0.01168
0.00000074,0.01168
0.000000741,0.01168
0.000000742,0.01168
0.000000743,0.01168
0.000000744,0.01168
0.000000745,0.01168
0.000000746,0.01168
0.000000747,0.01168
0.000000748,0.01168
0.000000749,0.01168
0.00000075,0.01168
0.000000751,0.01168
0.000000752,0.01168
0.000000753,0.01168
0.000000754,0.01168
0.000000755,0.01168
0.000000756,0.01168
0.000000757,0.01168
0.000000758,0.01168
0.000000759,0.01168
0.00000076,0.01168
0.000000761,0.01168
0.000000762,0.01168
0.000000763,0.01168
0.000000764,0.01168
0.000000765,0.01168
0.000000766,0.01168
0.000000767,0.01168
0.000000768,0.01168
0.000000769,0.01168
0.00000077,0.01168
0.000000771,0.01168
0.000000772,0.01168
0.000000773,0.01168
0.000000774,0.01168
0.000000775,0.01168
0.000000776,0.01168
0.000000777,0.01168
0.000000778,0.01168
0.000000779,0.01168
0.00000078,0.01168
0.000000781,0.01168
0.000000782,0.01168
0.000000783,0.01168
0.000000784,0.01168
0.000000785,0.01168
0.000000786,0.01168
0.000000787,0.01168
0.000000788,0.01168
0.000000789,0.01168
0.00000079,0.01168
0.000000791,0.01168
0.000000792,0.01168
0.000000793,0.01168
0.000000794,0.01168
0.000000795,0.01168
0.000000796,0.01168
0.000000797,0.01168
0.000000798,0.01168
0.000000799,0.01168
0.0000008,0.01168
0.000000801,0.01168
0.000000802,0.01168
0.000000803,0.01168
0.000000804,0.01168
0.000000805,0.01168
0.000000806,0.01168
0.000000807,0.01168
0.000000808,0.01168
0.000000809,0.01168
0.00000081,0.01168
0.000000811,0.01168
0.000000812,0.01168
0.000000813,0.01168
0.000000814,0.01168
0.000000815,0.01168
0.000000816,0.01168
0.000000817,0.01168
0.000000818,0.01168
0.000000819,0.01168
0.00000082,0.01168
0.000000821,0.01168
0.000000822,0.01168
0.000000823,0.01168
0.000000824,0.01168
0.000000825,0.01168
0.000000826,0.0108
0.000000827,0.01168
0.000000828,0.01168
0.000000829,0.00088
0.00000083,0.01168
0.000000831,0.01168
0.000000832,0.00376
0.000000833,0.01168
0.000000834,0.01168
0.000000835,0.008
0.000000836,0.01168
0.000000837,0.01168
0.000000838,0.0116
0.000000839,0.01
0.00000084,0.01168
0.000000841,0.01168
0.000000842,0.00784
0.000000843,0.01168
0.000000844,0.01168
0.000000845,0.00632
0.000000846,0.01168
0.000000847,0.01168
0.000000848,0.00712
0.000000849,0.01168
0.00000085,0.01168
0.000000851,0.01056
0.000000852,0.01168
0.000000853,0.01168
0.000000854,0.01072
0.000000855,0.01168
0.000000856,0.01168
0.000000857,0.00912
0.000000858,0.01168
0.000000859,0.01168
0.00000086,0.0104
0.000000861,0.01168
0.000000862,0.01168
0.000000863,0.0108
0.000000864,0.00952
0.000000865,0.01168
0.000000866,0.00792
0.000000867,0.00832
0.000000868,0.01168
0.000000869,0.00856
0.00000087,0.00864
0.000000871,0.01048
0.000000872,0.00848
0.000000873,0.00696
0.000000874,0.00816
0.000000875,0.0092
0.000000876,0.00592
0.000000877,0.00672
0.000000878,0.00744
0.000000879,0.00624
0.00000088,0.00808
0.000000881,0.0092
0.000000882,0.00736
0.000000883,0.00776
0.000000884,0.00896
0.000000885,0.00728
0.000000886,0.00648
0.000000887,0.00864
0.000000888,0.00904
0.000000889,0.0056
0.00000089,0.00688
0.000000891,0.00904
0.000000892,0.00512
0.000000893,0.00632
0.000000894,0.00952
0.000000895,0.0064
0.000000896,0.00576
0.000000897,0.00888
0.000000898,0.0072
0.000000899,0.00304
0.0000009,0.00552
0.000000901,0.00536
0.000000902,0.00272
0.000000903,0.0052
0.000000904,0.00712
0.000000905,0.00432
0.000000906,0.00416
0.000000907,0.00456
0.000000908,0.00432
0.000000909,0.00576
0.00000091,0.00568
0.000000911,0.00496
0.000000912,0.0064
0.000000913,0.00488
0.000000914,0.00328
0.000000915,0.00312
0.000000916,0.0032
0.000000917,0.00344
0.000000918,0.00336
0.000000919,0.00416
0.00000092,0.00488
0.000000921,0.00536
0.000000922,0.00504
0.000000923,0.002
0.000000924,0.00536
0.000000925,0.00392
0.000000926,-0.00064
0.000000927,0.00344
0.000000928,0.00704
0.000000929,0.0036
0.00000093,0.00416
0.000000931,0.00424
0.000000932,0.00216
0.000000933,0.00344
0.000000934,0.00568
0.000000935,0.0012
0.000000936,0.0008
0.000000937,0.00408
0.000000938,0.00296
0.000000939,0.00288
0.00000094,0.00304
0.000000941,0.00312
0.000000942,0.00368
0.000000943,0.00384
0.000000944,0.0028
0.000000945,0.00112
0.000000946,0.00184
0.000000947,0.00304
0.000000948,0.00328
0.000000949,0.00168
0.00000095,0.00112
0.000000951,0.00008
0.000000952,0.00144
0.000000953,0.00184
0.000000954,0.00296
0.000000955,0.00568
0.000000956,0.00128
0.000000957,0.0024
0.000000958,0.00456
0.000000959,0.0004
0.00000096,0.00008
0.000000961,0.00408
0.000000962,0.00264
0.000000963,0.00304
0.000000964,0.00528
0.000000965,0.00296
0.000000966,-0.00008
0.000000967,0.00256
0.000000968,0.00168
0.000000969,0.0008
0.00000097,0.00464
0.000000971,0.00648
0.000000972,0.00528
0.000000973,0.00648
0.000000974,0.00632
0.000000975,0.00576
0.000000976,0.00576
0.000000977,0.0068
0.000000978,0.0064
0.000000979,0.00672
0.00000098,0.00624
0.000000981,0.00592
0.000000982,0.00528
0.000000983,0.00664
0.000000984,0.00752
0.000000985,0.00664
0.000000986,0.00688
0.000000987,0.00856
0.000000988,0.01064
0.000000989,0.00808
0.00000099,0.008
0.000000991,0.01168
0.000000992,0.00728
0.000000993,0.00552
0.000000994,0.00968
0.000000995,0.0088
0.000000996,0.00704
0.000000997,0.00832
0.000000998,0.00824
0.000000999,0.00512
0.000001,0.00608
0.000001001,0.008
0.000001002,0.00656
0.000001003,0.0064
0.000001004,0.00768
0.000001005,0.006
0.000001006,0.00624
0.000001007,0.00832
0.000001008,0.00928
0.000001009,0.00832
0.00000101,0.00696
0.000001011,0.00656
0.000001012,0.00616
0.000001013,0.00768
0.000001014,0.00824
0.000001015,0.00744
0.000001016,0.00872
0.000001017,0.00864
0.000001018,0.00744
0.000001019,0.00728
0.00000102,0.00744
0.000001021,0.00984
0.000001022,0.00952
0.000001023,0.00688
0.000001024,0.0104
0.000001025,0.00928
0.000001026,0.00592
0.000001027,0.0104
0.000001028,0.01168
0.000001029,0.00752
0.00000103,0.00896
0.000001031,0.01056
0.000001032,0.00896
0.000001033,0.00984
0.000001034,0.01128
0.000001035,0.00912
0.000001036,0.00928
0.000001037,0.01168
0.000001038,0.01064
0.000001039,0.00912
0.00000104,0.01168
0.000001041,0.01168
0.000001042,0.01112
0.000001043,0.01136
0.000001044,0.01168
0.000001045,0.01168
0.000001046,0.01168
0.000001047,0.01168
0.000001048,0.01168
0.000001049,0.01168
0.00000105,0.01168
0.000001051,0.01168
0.000001052,0.01168
0.000001053,0.01168
0.000001054,0.01168
0.000001055,0.01168
0.000001056,0.01168
0.000001057,0.01168
0.000001058,0.01168
0.000001059,0.01168
0.00000106,0.01168
0.000001061,0.01168
0.000001062,0.01168
0.000001063,0.01168
0.000001064,0.01168
0.000001065,0.01168
0.000001066,0.01168
0.000001067,0.01168
0.000001068,0.01168
0.000001069,0.01168
0.00000107,0.01168
0.000001071,0.01168
0.000001072,0.01168
0.000001073,0.01168
0.000001074,0.01168
0.000001075,0.01168
0.000001076,0.01168
0.000001077,0.01168
0.000001078,0.01168
0.000001079,0.01168
0.00000108,0.01168
0.000001081,0.01168
0.000001082,0.01168
0.000001083,0.01168
0.000001084,0.01168
0.000001085,0.01168
0.000001086,0.01168
0.000001087,0.01168
0.000001088,0.01168
0.000001089,0.01168
0.00000109,0.01168
0.000001091,0.01168
0.000001092,0.01168
0.000001093,0.01168
0.000001094,0.01168
0.000001095,0.01168
0.000001096,0.01168
0.000001097,0.01168
0.000001098,0.01168
0.000001099,0.01168
0.0000011,0.01168
0.000001101,0.01168
0.000001102,0.01168
0.000001103,0.01168
0.000001104,0.01168
0.000001105,0.01168
0.000001106,0.01168
0.000001107,0.01168
0.000001108,0.01168
0.000001109,0.01168
0.00000111,0.01168
0.000001111,0.01168
0.000001112,0.01168
0.000001113,0.01168
0.000001114,0.01168
0.000001115,0.01168
0.000001116,0.01168
0.000001117,0.01168
0.000001118,0.01168
0.000001119,0.01168
0.00000112,0.01168
0.000001121,0.01168
0.000001122,0.01168
0.000001123,0.01168
0.000001124,0.01168
0.000001125,0.01168
0.000001126,0.01168
0.000001127,0.01168
0.000001128,0.01168
0.000001129,0.01168
0.00000113,0.01168
0.000001131,0.01168
0.000001132,0.01168
0.000001133,0.01168
0.000001134,0.01168
0.000001135,0.01168
0.000001136,0.01168
0.000001137,0.01168
0.000001138,0.01168
0.000001139,0.01168
0.00000114,0.01168
0.000001141,0.01168
0.000001142,0.01168
0.000001143,0.01168
0.000001144,0.01168
0.000001145,0.01168
0.000001146,0.01168
0.000001147,0.01168
0.000001148,0.01168
0.000001149,0.01168
0.00000115,0.01168
0.000001151,0.01168
0.000001152,0.01168
0.000001153,0.01168
0.000001154,0.01168
0.000001155,0.01168
0.000001156,0.01168
0.000001157,0.01168
0.000001158,0.01168
0.000001159,0.01168
0.00000116,0.01168
0.000001161,0.01168
0.000001162,0.01168
0.000001163,0.01168
0.000001164,0.01168
0.000001165,0.01168
0.000001166,0.01168
0.000001167,0.01168
0.000001168,0.01168
0.000001169,0.01168
0.00000117,0.01168
0.000001171,0.01168
0.000001172,0.01168
0.000001173,0.01168
0.000001174,0.01168
0.000001175,0.01168
0.000001176,0.01168
0.000001177,0.01168
0.000001178,0.01168
0.000001179,0.01168
0.00000118,0.01168
0.000001181,0.01168
0.000001182,0.01168
0.000001183,0.01168
0.000001184,0.01168
0.000001185,0.01168
0.000001186,0.01168
0.000001187,0.01168
0.000001188,0.01168
0.000001189,0.01168
0.00000119,0.01168
0.000001191,0.01168
0.000001192,0.01168
0.000001193,0.01168
0.000001194,0.01168
0.000001195,0.01168
0.000001196,0.01168
0.000001197,0.01168
0.000001198,0.01168
0.000001199,0.01168
0.0000012,0.01168
0.000001201,0.01168
0.000001202,0.01168
0.000001203,0.01168
0.000001204,0.01168
0.000001205,0.01168
0.000001206,0.01168
0.000001207,0.01168
0.000001208,0.01168
0.000001209,0.01168
0.00000121,0.01168
0.000001211,0.01168
0.000001212,0.01168
0.000001213,0.01168
0.000001214,0.01168
0.000001215,0.01168
0.000001216,0.01168
0.000001217,0.01168
0.000001218,0.01168
0.000001219,0.01168
0.00000122,0.01168
0.000001221,0.01168
0.000001222,0.01168
0.000001223,0.01168
0.000001224,0.01168
0.000001225,0.01168
0.000001226,0.01168
0.000001227,0.01168
0.000001228,0.01168
0.000001229,0.01168
0.00000123,0.01168
0.000001231,0.01168
0.000001232,0.01168
0.000001233,0.01168
0.000001234,0.01168
0.000001235,0.01168
0.000001236,0.01168
0.000001237,0.01168
0.000001238,0.01168
0.000001239,0.01168
0.00000124,0.01168
0.000001241,0.01168
0.000001242,0.01168
0.000001243,0.01168
0.000001244,0.01168
0.000001245,0.01168
0.000001246,0.01168
0.000001247,0.01168
0.000001248,0.01168
0.000001249,0.01168
0.00000125,0.01168
0.000001251,0.01168
0.000001252,0.01168
0.000001253,0.01168
0.000001254,0.01168
0.000001255,0.01168
0.000001256,0.01168
0.000001257,0.01168
0.000001258,0.01168
0.000001259,0.01168
0.00000126,0.01168
0.000001261,0.01168
0.000001262,0.01168
0.000001263,0.01168
0.000001264,0.01168
0.000001265,0.0068
0.000001266,0.01168
0.000001267,0.01168
0.000001268,0.00784
0.000001269,0.01168
0.00000127,0.01168
0.000001271,0.00928
0.000001272,0.01168
0.000001273,0.01168
0.000001274,0.00896
0.000001275,0.01168
0.000001276,0.01168
0.000001277,0.01088
0.000001278,0.01168
0.000001279,0.01168
0.00000128,0.01168
0.000001281,0.01168
0.000001282,0.01168
0.000001283,0.01168
0.000001284,0.01168
0.000001285,0.01168
0.000001286,0.01168
0.000001287,0.01144
0.000001288,0.01168
0.000001289,0.01168
0.00000129,0.00816
0.000001291,0.01168
0.000001292,0.01168
0.000001293,0.0108
0.000001294,0.01168
0.000001295,0.01168
0.000001296,0.00944
0.000001297,0.01168
0.000001298,0.01168
0.000001299,0.01168
0.0000013,0.01168
0.000001301,0.01168
0.000001302,0.01104
0.000001303,0.01168
0.000001304,0.01168
0.000001305,0.01168
0.000001306,0.01168
0.000001307,0.01168
0.000001308,0.01168
0.000001309,0.01168
0.00000131,0.01168
0.000001311,0.01168
0.000001312,0.01168
0.000001313,0.01168
0.000001314,0.01168
0.000001315,0.01152
0.000001316,0.01168
0.000001317,0.01168
0.000001318,0.00952
0.000001319,0.01168
0.00000132,0.01168
0.000001321,0.01168
0.000001322,0.01168
0.000001323,0.00984
0.000001324,0.01168
0.000001325,0.01168
0.000001326,0.00936
0.000001327,0.01128
0.000001328,0.01104
0.000001329,0.00912
0.00000133,0.00984
0.000001331,0.00936
0.000001332,0.00672
0.000001333,0.0072
0.000001334,0.00856
0.000001335,0.008
0.000001336,0.00816
0.000001337,0.00912
0.000001338,0.00672
0.000001339,0.00696
0.00000134,0.00808
0.000001341,0.008
0.000001342,0.00736
0.000001343,0.00512
0.000001344,0.00496
0.000001345,0.00552
0.000001346,0.00744
0.000001347,0.00784
0.000001348,0.00816
0.000001349,0.00704
0.00000135,0.00488
0.000001351,0.00616
0.000001352,0.00808
0.000001353,0.0076
0.000001354,0.00688
0.000001355,0.00864
0.000001356,0.00568
0.000001357,0.00688
0.000001358,0.00808
0.000001359,0.0036
0.00000136,0.0032
0.000001361,0.00704
0.000001362,0.00456
0.000001363,0.00312
0.000001364,0.00536
0.000001365,0.004
0.000001366,0.00304
0.000001367,0.0056
0.000001368,0.00392
0.000001369,-0.00032
0.00000137,0.00272
0.000001371,0.00424
0.000001372,0.00088
0.000001373,0.00216
0.000001374,0.0028
0.000001375,0.00104
0.000001376,0.0008
0.000001377,0.00096
0.000001378,0.00096
0.000001379,0.00024
0.00000138,-0.00136
0.000001381,-0.00088
0.000001382,-0.00152
0.000001383,-0.00224
0.000001384,-0.00168
0.000001385,-0.00168
0.000001386,-0.00224
0.000001387,-0.0008
0.000001388,0.00112
0.000001389,-0.00136
0.00000139,-0.00248
0.000001391,0.00088
0.000001392,-0.00256
0.000001393,-0.004
0.000001394,-0.00016
0.000001395,-0.00304
0.000001396,-0.00376
0.000001397,0.00008
0.000001398,-0.00152
0.000001399,-0.00352
0.0000014,-0.00192
0.000001401,-0.002
0.000001402,-0.00544
0.000001403,-0.00544
0.000001404,-0.00184
0.000001405,-0.00472
0.000001406,-0.00432
0.000001407,-0.00208
0.000001408,-0.00176
0.000001409,-0.00536
0.00000141,-0.00544
0.000001411,-0.00544
0.000001412,-0.00544
0.000001413,-0.00504
0.000001414,-0.00496
0.000001415,-0.00544
0.000001416,-0.00544
0.000001417,-0.00544
0.000001418,-0.00544
0.000001419,-0.0048
0.00000142,-0.00544
0.000001421,-0.00544
0.000001422,-0.00544
0.000001423,-0.00544
0.000001424,-0.00544
0.000001425,-0.00544
0.000001426,-0.00544
0.000001427,-0.00544
0.000001428,-0.00544
0.000001429,-0.00544
0.00000143,-0.00544
0.000001431,-0.00544
0.000001432,-0.00544
0.000001433,-0.00544
0.000001434,-0.00544
0.000001435,-0.00544
0.000001436,-0.00544
0.000001437,-0.00544
0.000001438,-0.00544
0.000001439,-0.00544
0.00000144,-0.00544
0.000001441,-0.00544
0.000001442,-0.00544
0.000001443,-0.00544
0.000001444,-0.00544
0.000001445,-0.00544
0.000001446,-0.00544
0.000001447,-0.00544
0.000001448,-0.00544
0.000001449,-0.00544
0.00000145,-0.00544
0.000001451,-0.00544
0.000001452,-0.00544
0.000001453,-0.00544
0.000001454,-0.00544
0.000001455,-0.00544
0.000001456,-0.00544
0.000001457,-0.00544
0.000001458,-0.00544
0.000001459,-0.00544
0.00000146,-0.00544
0.000001461,-0.00544
0.000001462,-0.00544
0.000001463,-0.00544
0.000001464,-0.00544
0.000001465,-0.00544
0.000001466,-0.00544
0.000001467,-0.00544
0.000001468,-0.00544
0.000001469,-0.00544
0.00000147,-0.00544
0.000001471,-0.00544
0.000001472,-0.00544
0.000001473,-0.00544
0.000001474,-0.00544
0.000001475,-0.00544
0.000001476,-0.00544
0.000001477,-0.00544
0.000001478,-0.00544
0.000001479,-0.00544
0.00000148,-0.00544
0.000001481,-0.00544
0.000001482,-0.00544
0.000001483,-0.00544
0.000001484,-0.00544
0.000001485,-0.00544
0.000001486,-0.00544
0.000001487,-0.00544
0.000001488,-0.00544
0.000001489,-0.00544
0.00000149,-0.00544
0.000001491,-0.00544
0.000001492,-0.00544
0.000001493,-0.00544
0.000001494,-0.00544
0.000001495,-0.00544
0.000001496,-0.00544
0.000001497,-0.00544
0.000001498,-0.00544
0.000001499,-0.00544
0.0000015,-0.00544
0.000001501,-0.00544
0.000001502,-0.00544
0.000001503,-0.00544
0.000001504,-0.00544
0.000001505,-0.00544
0.000001506,-0.00544
0.000001507,-0.00544
0.000001508,-0.00544
0.000001509,-0.00544
0.00000151,-0.00544
0.000001511,-0.00544
0.000001512,-0.00544
0.000001513,-0.00544
0.000001514,-0.00544
0.000001515,-0.00544
0.000001516,-0.00544
0.000001517,-0.00544
0.000001518,-0.00544
0.000001519,-0.00544
0.00000152,-0.00544
0.000001521,-0.00544
0.000001522,-0.00544
0.000001523,-0.00544
0.000001524,-0.00544
0.000001525,-0.00544
0.000001526,-0.00544
0.000001527,-0.00544
0.000001528,-0.00544
0.000001529,-0.00544
0.00000153,-0.00544
0.000001531,-0.00544
0.000001532,-0.00544
0.000001533,-0.00544
0.000001534,-0.00544
0.000001535,-0.00544
0.000001536,-0.00544
0.000001537,-0.00544
0.000001538,-0.00544
0.000001539,-0.00544
0.00000154,-0.00544
0.000001541,-0.00544
0.000001542,-0.00544
0.000001543,-0.00544
0.000001544,-0.00544
0.000001545,-0.00544
0.000001546,-0.00544
0.000001547,-0.00544
0.000001548,-0.00544
0.000001549,-0.00544
0.00000155,-0.00544
0.000001551,-0.00544
0.000001552,-0.00544
0.000001553,-0.00544
0.000001554,-0.00544
0.000001555,-0.00544
0.000001556,-0.00544
0.000001557,-0.00544
0.000001558,-0.00544
0.000001559,-0.00544
0.00000156,-0.00544
0.000001561,-0.00544
0.000001562,-0.00544
0.000001563,-0.00544
0.000001564,-0.00544
0.000001565,-0.00544
0.000001566,-0.00544
0.000001567,-0.00544
0.000001568,-0.00544
0.000001569,-0.00544
0.00000157,-0.00544
0.000001571,-0.00544
0.000001572,-0.00544
0.000001573,-0.00544
0.000001574,-0.00544
0.000001575,-0.00544
0.000001576,-0.00544
0.000001577,-0.00544
0.000001578,-0.00544
0.000001579,-0.00544
0.00000158,-0.00544
0.000001581,-0.00544
0.000001582,-0.00544
0.000001583,-0.00544
0.000001584,-0.00544
0.000001585,-0.00544
0.000001586,-0.00544
0.000001587,-0.00544
0.000001588,-0.00544
0.000001589,-0.00544
0.00000159,-0.00544
0.000001591,-0.00544
0.000001592,-0.00544
0.000001593,-0.00544
0.000001594,-0.00544
0.000001595,-0.00544
0.000001596,-0.00544
0.000001597,-0.00544
0.000001598,-0.00544
0.000001599,-0.00544
0.0000016,-0.00544
0.000001601,-0.00544
0.000001602,-0.00544
0.000001603,-0.00544
0.000001604,-0.00544
0.000001605,-0.00544
0.000001606,-0.00544
0.000001607,-0.00544
0.000001608,-0.00544
0.000001609,-0.00544
0.00000161,-0.00544
0.000001611,-0.00544
0.000001612,-0.00544
0.000001613,-0.00544
0.000001614,-0.00544
0.000001615,-0.00544
0.000001616,-0.00544
0.000001617,-0.00544
0.000001618,-0.00544
0.000001619,-0.00544
0.00000162,-0.00544
0.000001621,-0.00544
0.000001622,-0.00544
0.000001623,-0.00544
0.000001624,-0.00544
0.000001625,-0.00544
0.000001626,-0.00544
0.000001627,-0.00544
0.000001628,-0.00544
0.000001629,-0.00544
0.00000163,-0.00544
0.000001631,-0.00544
0.000001632,-0.00544
0.000001633,-0.00544
0.000001634,-0.00544
0.000001635,-0.00544
0.000001636,-0.00544
0.000001637,-0.00544
0.000001638,-0.00544
0.000001639,-0.00544
0.00000164,-0.00544
0.000001641,-0.00544
0.000001642,-0.00544
0.000001643,-0.00544
0.000001644,-0.00544
0.000001645,-0.00544
0.000001646,-0.00544
0.000001647,-0.00544
0.000001648,-0.00544
0.000001649,-0.00544
0.00000165,-0.00544
0.000001651,-0.00544
0.000001652,-0.00544
0.000001653,-0.00544
0.000001654,-0.00544
0.000001655,-0.00544
0.000001656,-0.00544
0.000001657,-0.00544
0.000001658,-0.00544
0.000001659,-0.00544
0.00000166,-0.00544
0.000001661,-0.00544
0.000001662,-0.00544
0.000001663,-0.00544
0.000001664,-0.00544
0.000001665,-0.00544
0.000001666,-0.00544
0.000001667,-0.00544
0.000001668,-0.00544
0.000001669,-0.00544
0.00000167,-0.00544
0.000001671,-0.00544
0.000001672,-0.00544
0.000001673,-0.00544
0.000001674,-0.00544
0.000001675,-0.00544
0.000001676,-0.00544
0.000001677,-0.00544
0.000001678,-0.00544
0.000001679,-0.00544
0.00000168,-0.00544
0.000001681,-0.00544
0.000001682,-0.00544
0.000001683,-0.00544
0.000001684,-0.00544
0.000001685,-0.00544
0.000001686,-0.00544
0.000001687,-0.00544
0.000001688,-0.00544
0.000001689,-0.00544
0.00000169,-0.00544
0.000001691,-0.00544
0.000001692,-0.00544
0.000001693,-0.00544
0.000001694,-0.00544
0.000001695,-0.00544
0.000001696,-0.00544
0.000001697,-0.00544
0.000001698,-0.00544
0.000001699,-0.00544
0.0000017,-0.00544
0.000001701,-0.00544
0.000001702,-0.00464
0.000001703,-0.00544
0.000001704,-0.00544
0.000001705,-0.00544
0.000001706,-0.00544
0.000001707,-0.00544
0.000001708,-0.00544
0.000001709,-0.00544
0.00000171,-0.00544
0.000001711,-0.00544
0.000001712,-0.00544
0.000001713,-0.00544
0.000001714,-0.00544
0.000001715,-0.00544
0.000001716,-0.00544
0.000001717,-0.00544
0.000001718,-0.00544
0.000001719,-0.00544
0.00000172,-0.00544
0.000001721,-0.00544
0.000001722,-0.00544
0.000001723,-0.00544
0.000001724,-0.00544
0.000001725,-0.00544
0.000001726,-0.00544
0.000001727,-0.00544
0.000001728,-0.00544
0.000001729,-0.00544
0.00000173,-0.00544
0.000001731,-0.00544
0.000001732,-0.00544
0.000001733,-0.00544
0.000001734,-0.00544
0.000001735,-0.00544
0.000001736,-0.00544
0.000001737,-0.00544
0.000001738,-0.00544
0.000001739,-0.00544
0.00000174,-0.00544
0.000001741,-0.00544
0.000001742,-0.00544
0.000001743,-0.00544
0.000001744,-0.00544
0.000001745,-0.00544
0.000001746,-0.00544
0.000001747,-0.00544
0.000001748,-0.00544
0.000001749,-0.00544
0.00000175,-0.00544
0.000001751,-0.00544
0.000001752,-0.00544
0.000001753,-0.00544
0.000001754,-0.00544
0.000001755,-0.00544
0.000001756,-0.00544
0.000001757,-0.00544
0.000001758,-0.00544
0.000001759,-0.00544
0.00000176,-0.00544
0.000001761,-0.00544
0.000001762,-0.00544
0.000001763,-0.00544
0.000001764,-0.00544
0.000001765,-0.00544
0.000001766,-0.00544
0.000001767,-0.00544
0.000001768,-0.00544
0.000001769,-0.00544
0.00000177,-0.00544
0.000001771,-0.00544
0.000001772,-0.00544
0.000001773,-0.00544
0.000001774,-0.00544
0.000001775,-0.00544
0.000001776,-0.00544
0.000001777,-0.00544
0.000001778,-0.00544
0.000001779,-0.00544
0.00000178,-0.00544
0.000001781,-0.00544
0.000001782,-0.00544
0.000001783,-0.00544
0.000001784,-0.00544
0.000001785,-0.00544
0.000001786,-0.00544
0.000001787,-0.00544
0.000001788,-0.00544
0.000001789,-0.00544
0.00000179,-0.00544
0.000001791,-0.00544
0.000001792,-0.00544
0.000001793,-0.00544
0.000001794,-0.00544
0.000001795,-0.00544
0.000001796,-0.00544
0.000001797,-0.00544
0.000001798,-0.00544
0.000001799,-0.00544
0.0000018,-0.00544
0.000001801,-0.00544
0.000001802,-0.00544
0.000001803,-0.00544
0.000001804,-0.00544
0.000001805,-0.00544
0.000001806,-0.00544
0.000001807,-0.00544
0.000001808,-0.00544
0.000001809,-0.00544
0.00000181,-0.00544
0.000001811,-0.00544
0.000001812,-0.00544
0.000001813,-0.00544
0.000001814,-0.00544
0.000001815,-0.00544
0.000001816,-0.00544
0.000001817,-0.00544
0.000001818,-0.00544
0.000001819,-0.00544
0.00000182,-0.00544
0.000001821,-0.00544
0.000001822,-0.00544
0.000001823,-0.00544
0.000001824,-0.00544
0.000001825,-0.00544
0.000001826,-0.00544
0.000001827,-0.00544
0.000001828,-0.00544
0.000001829,-0.00544
0.00000183,-0.00544
0.000001831,-0.00544
0.000001832,-0.00544
0.000001833,-0.00544
0.000001834,-0.00544
0.000001835,-0.00544
0.000001836,-0.00544
0.000001837,-0.00544
0.000001838,-0.00544
0.000001839,-0.00544
0.00000184,-0.00544
0.000001841,-0.00544
0.000001842,-0.00544
0.000001843,-0.00544
0.000001844,-0.00544
0.000001845,-0.00544
0.000001846,-0.00544
0.000001847,-0.00544
0.000001848,-0.00544
0.000001849,-0.00544
0.00000185,-0.00544
0.000001851,-0.00544
0.000001852,-0.00544
0.000001853,-0.00544
0.000001854,-0.00544
0.000001855,-0.00544
0.000001856,-0.00544
0.000001857,-0.00544
0.000001858,-0.00544
0.000001859,-0.00544
0.00000186,-0.00544
0.000001861,-0.00544
0.000001862,-0.00544
0.000001863,-0.00544
0.000001864,-0.00544
0.000001865,-0.00544
0.000001866,-0.00544
0.000001867,-0.00544
0.000001868,-0.00544
0.000001869,-0.00544
0.00000187,-0.00544
0.000001871,-0.00544
0.000001872,-0.00544
0.000001873,-0.00544
0.000001874,-0.00544
0.000001875,-0.00544
0.000001876,-0.00544
0.000001877,-0.00544
0.000001878,-0.00544
0.000001879,-0.00544
0.00000188,-0.00544
0.000001881,-0.00544
0.000001882,-0.00544
0.000001883,-0.00544
0.000001884,-0.00544
0.000001885,-0.00544
0.000001886,-0.00544
0.000001887,-0.00544
0.000001888,-0.00544
0.000001889,-0.00544
0.00000189,-0.00544
0.000001891,-0.00544
0.000001892,-0.00544
0.000001893,-0.00544
0.000001894,-0.00544
0.000001895,-0.00544
0.000001896,-0.00544
0.000001897,-0.00544
0.000001898,-0.00544
0.000001899,-0.00544
0.0000019,-0.00544
0.000001901,-0.00544
0.000001902,-0.00544
0.000001903,-0.00544
0.000001904,-0.00544
0.000001905,-0.00544
0.000001906,-0.00544
0.000001907,-0.00544
0.000001908,-0.00544
0.000001909,-0.00544
0.00000191,-0.00544
0.000001911,-0.00544
0.000001912,-0.00544
0.000001913,-0.00544
0.000001914,-0.00544
0.000001915,-0.00544
0.000001916,-0.00544
0.000001917,-0.00544
0.000001918,-0.00544
0.000001919,-0.00544
0.00000192,-0.00544
0.000001921,-0.00544
0.000001922,-0.00544
0.000001923,-0.00544
0.000001924,-0.00544
0.000001925,-0.00544
0.000001926,-0.00544
0.000001927,-0.00544
0.000001928,-0.00544
0.000001929,-0.00544
0.00000193,-0.00544
0.000001931,-0.00544
0.000001932,-0.00544
0.000001933,-0.00544
0.000001934,-0.00544
0.000001935,-0.00544
0.000001936,-0.00544
0.000001937,-0.00544
0.000001938,-0.00544
0.000001939,-0.00544
0.00000194,-0.00544
0.000001941,-0.00544
0.000001942,-0.00544
0.000001943,-0.00544
0.000001944,-0.00544
0.000001945,-0.00544
0.000001946,-0.00544
0.000001947,-0.00544
0.000001948,-0.00544
0.000001949,-0.00544
0.00000195,-0.00544
0.000001951,-0.00544
0.000001952,-0.00544
0.000001953,-0.00544
0.000001954,-0.00544
0.000001955,-0.00544
0.000001956,-0.00544
0.000001957,-0.00544
0.000001958,-0.00544
0.000001959,-0.00544
0.00000196,-0.00544
0.000001961,-0.00544
0.000001962,-0.00544
0.000001963,-0.00544
0.000001964,-0.00544
0.000001965,-0.00544
0.000001966,-0.00544
0.000001967,-0.00544
0.000001968,-0.00544
0.000001969,-0.00544
0.00000197,-0.00544
0.000001971,-0.00544
0.000001972,-0.00544
0.000001973,-0.00544
0.000001974,-0.00544
0.000001975,-0.00544
0.000001976,-0.00544
0.000001977,-0.00544
0.000001978,-0.00544
0.000001979,-0.00544
0.00000198,-0.00544
0.000001981,-0.00544
0.000001982,-0.00544
0.000001983,-0.00544
0.000001984,-0.00544
0.000001985,-0.00544
0.000001986,-0.00544
0.000001987,-0.00544
0.000001988,-0.00544
0.000001989,-0.00544
0.00000199,-0.00544
0.000001991,-0.00544
0.000001992,-0.00544
0.000001993,-0.00544
0.000001994,-0.00544
0.000001995,-0.00544
0.000001996,-0.00544
0.000001997,-0.00544
0.000001998,-0.00544
0.000001999,-0.00544
0.000002,-0.00544
0.000002001,-0.00544
0.000002002,-0.00544
0.000002003,-0.00544
0.000002004,-0.00544
0.000002005,-0.00544
0.000002006,-0.00544
0.000002007,-0.00544
0.000002008,-0.00544
0.000002009,-0.00544
0.00000201,-0.00544
0.000002011,-0.00544
0.000002012,-0.00544
0.000002013,-0.00544
0.000002014,-0.00544
0.000002015,-0.00544
0.000002016,-0.00544
0.000002017,-0.00544
0.000002018,-0.00544
0.000002019,-0.00544
0.00000202,-0.00544
0.000002021,-0.00544
0.000002022,-0.00544
0.000002023,-0.00544
0.000002024,-0.00544
0.000002025,-0.00544
0.000002026,-0.00544
0.000002027,-0.00544
0.000002028,-0.00544
0.000002029,-0.00544
0.00000203,-0.00544
0.000002031,-0.00544
0.000002032,-0.00544
0.000002033,-0.00544
0.000002034,-0.00544
0.000002035,-0.00544
0.000002036,-0.00544
0.000002037,-0.00544
0.000002038,-0.00544
0.000002039,-0.00544
0.00000204,-0.00544
0.000002041,-0.00544
0.000002042,-0.00544
0.000002043,-0.00544
0.000002044,-0.00544
0.000002045,-0.00544
0.000002046,-0.00544
0.000002047,-0.00544
0.000002048,-0.00544
0.000002049,-0.00544
0.00000205,-0.00544
0.000002051,-0.00544
0.000002052,-0.00544
0.000002053,-0.00544
0.000002054,-0.00544
0.000002055,-0.00544
0.000002056,-0.00544
0.000002057,-0.00544
0.000002058,-0.00376
0.000002059,-0.00544
0.00000206,-0.00544
0.000002061,-0.0052
0.000002062,-0.00544
0.000002063,-0.00544
0.000002064,-0.0044
0.000002065,-0.00544
0.000002066,-0.00544
0.000002067,-0.00416
0.000002068,-0.00512
0.000002069,-0.00544
0.00000207,-0.00544
0.000002071,-0.00448
0.000002072,-0.00544
0.000002073,-0.00544
0.000002074,-0.0044
0.000002075,-0.00544
0.000002076,-0.00536
0.000002077,-0.00544
0.000002078,-0.00544
0.000002079,-0.00544
0.00000208,-0.00488
0.000002081,-0.00496
0.000002082,-0.00544
0.000002083,-0.00544
0.000002084,-0.00544
0.000002085,-0.00544
0.000002086,-0.00544
0.000002087,-0.00544
0.000002088,-0.00456
0.000002089,-0.00544
0.00000209,-0.00544
0.000002091,-0.004
0.000002092,-0.00544
0.000002093,-0.00544
0.000002094,-0.00416
0.000002095,-0.00536
0.000002096,-0.00544
0.000002097,-0.00528
0.000002098,-0.00456
0.000002099,-0.00544
0.0000021,-0.00544
0.000002101,-0.00424
0.000002102,-0.00544
0.000002103,-0.00544
0.000002104,-0.00544
0.000002105,-0.00544
0.000002106,-0.00544
0.000002107,-0.00544
0.000002108,-0.00544
0.000002109,-0.00544
0.00000211,-0.00544
0.000002111,-0.00528
0.000002112,-0.00544
0.000002113,-0.00544
0.000002114,-0.00512
0.000002115,-0.00544
0.000002116,-0.00544
0.000002117,-0.00544
0.000002118,-0.00544
0.000002119,-0.00544
0.00000212,-0.00544
0.000002121,-0.0052
0.000002122,-0.0044
0.000002123,-0.00544
0.000002124,-0.00544
0.000002125,-0.00376
0.000002126,-0.00544
0.000002127,-0.00496
0.000002128,-0.00208
0.000002129,-0.004
0.00000213,-0.00504
0.000002131,-0.00528
0.000002132,-0.00544
0.000002133,-0.00544
0.000002134,0.00216
0.000002135,0.01024
0.000002136,-0.00544
0.000002137,-0.00496
0.000002138,0.01168
0.000002139,-0.00544
0.00000214,-0.00544
0.000002141,0.01168
0.000002142,-0.00544
0.000002143,-0.00544
0.000002144,0.00992
0.000002145,-0.0048
0.000002146,-0.00544
0.000002147,0.00632
0.000002148,-0.00248
0.000002149,-0.00544
0.00000215,0.00456
0.000002151,-0.00016
0.000002152,-0.00544
0.000002153,0.00144
0.000002154,0.00272
0.000002155,-0.00544
0.000002156,-0.0024
0.000002157,0.00248
0.000002158,-0.00368
0.000002159,-0.00352
0.00000216,0.00184
0.000002161,-0.00232
0.000002162,-0.00344
0.000002163,0.00064
0.000002164,-0.0024
0.000002165,-0.004
0.000002166,0.0004
0.000002167,-0.00128
0.000002168,-0.00464
0.000002169,-0.0004
0.00000217,-0.00024
0.000002171,-0.0024
0.000002172,0.00024
0.000002173,0.00024
0.000002174,-0.00424
0.000002175,-0.00192
0.000002176,-0.00112
0.000002177,-0.00248
0.000002178,-0.00008
0.000002179,-0.00024
0.00000218,-0.002
0.000002181,-0.00064
0.000002182,-0.0004
0.000002183,-0.00352
0.000002184,-0.00448
0.000002185,-0.00368
0.000002186,-0.0052
0.000002187,-0.00536
0.000002188,-0.00272
0.000002189,-0.0052
0.00000219,-0.00544
0.000002191,-0.00232
0.000002192,-0.00544
0.000002193,-0.00544
0.000002194,-0.00416
0.000002195,-0.00456
0.000002196,-0.00544
0.000002197,-0.0036
0.000002198,-0.004
0.000002199,-0.00544
0.0000022,-0.00472
0.000002201,-0.00264
0.000002202,-0.00544
0.000002203,-0.00544
0.000002204,-0.00488
0.000002205,-0.00544
0.000002206,-0.00544
0.000002207,-0.00544
0.000002208,-0.00544
0.000002209,-0.00544
0.00000221,-0.00544
0.000002211,-0.00544
0.000002212,-0.00544
0.000002213,-0.00544
0.000002214,-0.00544
0.000002215,-0.00544
0.000002216,-0.00544
0.000002217,-0.00424
0.000002218,-0.00544
0.000002219,-0.00544
0.00000222,-0.00544
0.000002221,-0.00544
0.000002222,-0.00488
0.000002223,-0.00544
0.000002224,-0.00464
0.000002225,-0.00504
0.000002226,-0.00544
0.000002227,-0.00544
0.000002228,-0.00416
0.000002229,-0.00544
0.00000223,-0.00544
0.000002231,-0.00544
0.000002232,-0.00544
0.000002233,-0.00544
0.000002234,-0.00464
0.000002235,-0.00544
0.000002236,-0.00544
0.000002237,-0.00544
0.000002238,-0.00544
0.000002239,-0.00544
0.00000224,-0.00544
0.000002241,-0.00544
0.000002242,-0.00544
0.000002243,-0.00456
0.000002244,-0.00424
0.000002245,-0.00408
0.000002246,-0.00464
0.000002247,-0.00384
0.000002248,-0.00344
0.000002249,-0.00416
0.00000225,-0.00384
0.000002251,-0.004
0.000002252,-0.00504
0.000002253,-0.00528
0.000002254,-0.00424
0.000002255,-0.00208
0.000002256,-0.00544
0.000002257,-0.00536
0.000002258,0.00072
0.000002259,-0.00448
0.00000226,-0.0052
0.000002261,-0.00064
0.000002262,-0.00344
0.000002263,-0.00504
0.000002264,-0.00152
0.000002265,-0.00184
0.000002266,-0.00312
0.000002267,0.00152
0.000002268,0.0012
0.000002269,-0.004
0.00000227,-0.0024
0.000002271,-0.00208
0.000002272,-0.00392
0.000002273,-0.00192
0.000002274,-0.00128
0.000002275,-0.00248
0.000002276,-0.0032
0.000002277,-0.00184
0.000002278,-0.00264
0.000002279,-0.00408
0.00000228,-0.00344
0.000002281,-0.00328
0.000002282,-0.0024
0.000002283,-0.00184
0.000002284,-0.00184
0.000002285,-0.0008
0.000002286,-0.00248
0.000002287,-0.00232
0.000002288,-0.00008
0.000002289,-0.00216
0.00000229,-0.00328
0.000002291,0.002
0.000002292,-0.00056
0.000002293,-0.00432
0.000002294,-0.00024
0.000002295,-0.00048
0.000002296,-0.00288
0.000002297,-0.00064
0.000002298,0.00048
0.000002299,-0.00208
0.0000023,-0.00232
0.000002301,0.00064
0.000002302,-0.00168
0.000002303,-0.00096
0.000002304,0.00168
0.000002305,-0.00256
0.000002306,-0.00432
0.000002307,-0.00216
0.000002308,-0.00104
0.000002309,-0.00168
0.00000231,-0.00144
0.000002311,-0.00088
0.000002312,-0.002
0.000002313,-0.00144
0.000002314,-0.0004
0.000002315,-0.00256
0.000002316,-0.00184
0.000002317,-0.00104
0.000002318,-0.00144
0.000002319,-0.00112
0.00000232,0.00008
0.000002321,0.00176
0.000002322,0.00056
0.000002323,-0.00336
0.000002324,-0.00048
0.000002325,-0.00024
0.000002326,-0.00432
0.000002327,-0.00256
0.000002328,-0.00008
0.000002329,-0.0036
0.00000233,-0.00392
0.000002331,0.00048
0.000002332,-0.00016
0.000002333,-0.00056
0.000002334,0.0004
0.000002335,-0.00072
0.000002336,-0.00112
0.000002337,0.0012
0.000002338,0.00168
0.000002339,0.00032
0.00000234,0.0012
0.000002341,0.00056
0.000002342,0.00016
0.000002343,0.0004
0.000002344,0.00144
0.000002345,0.0024
0.000002346,0.00176
0.000002347,0.00024
0.000002348,-0.00072
0.000002349,-0.00024
0.00000235,0.00152
0.000002351,0.00296
0.000002352,0.00144
0.000002353,0.00168
0.000002354,0.00264
0.000002355,0.00296
0.000002356,-0.00088
0.000002357,0.00048
0.000002358,0.00304
0.000002359,-0.0036
0.00000236,0.00064
0.000002361,0.00688
0.000002362,-0.00032
0.000002363,-0.00184
0.000002364,0.00536
0.000002365,0.00208
0.000002366,-0.00288
0.000002367,0.0024
0.000002368,0.0012
0.000002369,-0.00192
0.00000237,0.00232
0.000002371,0.0036
0.000002372,0.0004
0.000002373,0.00384
0.000002374,0.00512
0.000002375,0.0036
0.000002376,0.00384
0.000002377,0.00448
0.000002378,0.00296
0.000002379,0.00248
0.00000238,0.0052
0.000002381,0.00304
0.000002382,0.00096
0.000002383,0.00184
0.000002384,0.00136
0.000002385,0.00088
0.000002386,0.00264
0.000002387,0.00296
0.000002388,0.00264
0.000002389,0.002
0.00000239,0.00208
0.000002391,0.00664
0.000002392,0.0048
0.000002393,0.0012
0.000002394,0.00344
0.000002395,0.00248
0.000002396,-0.00064
0.000002397,0.0024
0.000002398,0.00328
0.000002399,0.00064
0.0000024,0.00208
0.000002401,0.0048
0.000002402,0.00368
0.000002403,0.00208
0.000002404,0.00328
0.000002405,0.0032
0.000002406,0.00152
0.000002407,0.00088
0.000002408,0.00272
0.000002409,0.00312
0.00000241,0.00256
0.000002411,0.00424
0.000002412,0.00584
0.000002413,0.00416
0.000002414,0.00232
0.000002415,0.00088
0.000002416,0.00136
0.000002417,0.00256
0.000002418,0.004
0.000002419,0.00368
0.00000242,0.00216
0.000002421,0.00224
0.000002422,0.00344
0.000002423,0.00136
0.000002424,0.00496
0.000002425,0.00632
0.000002426,0.00208
0.000002427,0.00144
0.000002428,0.00456
0.000002429,0.00416
0.00000243,0.00352
0.000002431,0.00512
0.000002432,0.00584
0.000002433,0.00384
0.000002434,0.00528
0.000002435,0.0052
0.000002436,0.0032
0.000002437,0.00528
0.000002438,0.00736
0.000002439,0.00632
0.00000244,0.00576
0.000002441,0.00584
0.000002442,0.00536
0.000002443,0.00392
0.000002444,0.00576
0.000002445,0.0076
0.000002446,0.0056
0.000002447,0.0056
0.000002448,0.00584
0.000002449,0.00576
0.00000245,0.00672
0.000002451,0.00672
0.000002452,0.006
0.000002453,0.00776
0.000002454,0.00888
0.000002455,0.00936
0.000002456,0.0064
0.000002457,0.00736
0.000002458,0.01
0.000002459,0.0052
0.00000246,0.0056
0.000002461,0.01104
0.000002462,0.00944
0.000002463,0.00768
0.000002464,0.01056
0.000002465,0.00928
0.000002466,0.00648
0.000002467,0.00848
0.000002468,0.00936
0.000002469,0.00808
0.00000247,0.00848
0.000002471,0.00856
0.000002472,0.00824
0.000002473,0.0092
0.000002474,0.00816
0.000002475,0.00736
0.000002476,0.0064
0.000002477,0.00792
0.000002478,0.01016
0.000002479,0.00992
0.00000248,0.00976
0.000002481,0.01112
0.000002482,0.0092
0.000002483,0.00992
0.000002484,0.01168
0.000002485,0.01168
0.000002486,0.01168
0.000002487,0.01168
0.000002488,0.01168
0.000002489,0.01168
0.00000249,0.01128
0.000002491,0.01168
0.000002492,0.01168
0.000002493,0.01096
0.000002494,0.01168
0.000002495,0.01168
0.000002496,0.01168
0.000002497,0.01168
0.000002498,0.01168
0.000002499,0.01168
0.0000025,0.01168
0.000002501,0.01168
0.000002502,0.01168
0.000002503,0.01168
0.000002504,0.01168
0.000002505,0.01168
0.000002506,0.01168
0.000002507,0.01168
0.000002508,0.01168
0.000002509,0.01168
0.00000251,0.01168
0.000002511,0.01168
0.000002512,0.01168
0.000002513,0.01168
0.000002514,0.01168
0.000002515,0.01168
0.000002516,0.01168
0.000002517,0.01168
0.000002518,0.01168
0.000002519,0.01168
0.00000252,0.01168
0.000002521,0.01168
0.000002522,0.01168
0.000002523,0.01168
0.000002524,0.01168
0.000002525,0.01168
0.000002526,0.01168
0.000002527,0.01168
0.000002528,0.01168
0.000002529,0.01168
0.00000253,0.01168
0.000002531,0.01168
0.000002532,0.01168
0.000002533,0.01168
0.000002534,0.01168
0.000002535,0.01168
0.000002536,0.01168
0.000002537,0.01168
0.000002538,0.01168
0.000002539,0.01168
0.00000254,0.01168
0.000002541,0.01168
0.000002542,0.01168
0.000002543,0.01168
0.000002544,0.01168
0.000002545,0.01168
0.000002546,0.01168
0.000002547,0.01168
0.000002548,0.01168
0.000002549,0.01168
0.00000255,0.01168
0.000002551,0.01168
0.000002552,0.01168
0.000002553,0.01168
0.000002554,0.01168
0.000002555,0.01168
0.000002556,0.01168
0.000002557,0.01168
0.000002558,0.01168
0.000002559,0.01168
0.00000256,0.01168
0.000002561,0.01168
0.000002562,0.01168
0.000002563,0.01168
0.000002564,0.01168
0.000002565,0.01168
0.000002566,0.01168
0.000002567,0.01168
0.000002568,0.01168
0.000002569,0.01168
0.00000257,0.01168
0.000002571,0.01168
0.000002572,0.01168
0.000002573,0.01168
0.000002574,0.01168
0.000002575,0.01168
0.000002576,0.01168
0.000002577,0.01168
0.000002578,0.01168
0.000002579,0.01168
0.00000258,0.01168
0.000002581,0.01168
0.000002582,0.01168
0.000002583,0.01168
0.000002584,0.01168
0.000002585,0.01168
0.000002586,0.01168
0.000002587,0.01168
0.000002588,0.01168
0.000002589,0.01168
0.00000259,0.01168
0.000002591,0.01168
0.000002592,0.01168
0.000002593,0.01168
0.000002594,0.01168
0.000002595,0.01168
0.000002596,0.01168
0.000002597,0.01168
0.000002598,0.01168
0.000002599,0.01168
0.0000026,0.01168
0.000002601,0.01168
0.000002602,0.01168
0.000002603,0.01168
0.000002604,0.01168
0.000002605,0.01168
0.000002606,0.01168
0.000002607,0.01168
0.000002608,0.01168
0.000002609,0.01168
0.00000261,0.01168
0.000002611,0.01168
0.000002612,0.01168
0.000002613,0.01168
0.000002614,0.01168
0.000002615,0.01168
0.000002616,0.01168
0.000002617,0.01168
0.000002618,0.01168
0.000002619,0.01168
0.00000262,0.01168
0.000002621,0.01168
0.000002622,0.01168
0.000002623,0.01168
0.000002624,0.01168
0.000002625,0.01168
0.000002626,0.01168
0.000002627,0.01168
0.000002628,0.01168
0.000002629,0.01168
0.00000263,0.01168
0.000002631,0.01168
0.000002632,0.01168
0.000002633,0.01168
0.000002634,0.01168
0.000002635,0.01168
0.000002636,0.01168
0.000002637,0.01168
0.000002638,0.01168
0.000002639,0.01168
0.00000264,0.01168
0.000002641,0.01168
0.000002642,0.01168
0.000002643,0.01168
0.000002644,0.01168
0.000002645,0.01168
0.000002646,0.01168
0.000002647,0.01168
0.000002648,0.01168
0.000002649,0.01168
0.00000265,0.01168
0.000002651,0.01168
0.000002652,0.01168
0.000002653,0.01168
0.000002654,0.01168
0.000002655,0.01168
0.000002656,0.01168
0.000002657,0.01168
0.000002658,0.01168
0.000002659,0.01168
0.00000266,0.01168
0.000002661,0.01168
0.000002662,0.01168
0.000002663,0.01168
0.000002664,0.01168
0.000002665,0.01168
0.000002666,0.01168
0.000002667,0.01168
0.000002668,0.01168
0.000002669,0.01168
0.00000267,0.01168
0.000002671,0.01168
0.000002672,0.01168
0.000002673,0.01168
0.000002674,0.01168
0.000002675,0.01168
0.000002676,0.01168
0.000002677,0.01168
0.000002678,0.01168
0.000002679,0.01168
0.00000268,0.01168
0.000002681,0.01168
0.000002682,0.01168
0.000002683,0.01168
0.000002684,0.01168
0.000002685,0.01168
0.000002686,0.01168
0.000002687,0.01168
0.000002688,0.01168
0.000002689,0.01168
0.00000269,0.01168
0.000002691,0.01168
0.000002692,0.01168
0.000002693,0.01168
0.000002694,0.01168
0.000002695,0.01168
0.000002696,0.01168
0.000002697,0.01168
0.000002698,0.01168
0.000002699,0.01168
0.0000027,0.01168
0.000002701,0.01168
0.000002702,0.01168
0.000002703,0.01168
0.000002704,0.01168
0.000002705,0.01168
0.000002706,0.01168
0.000002707,0.01168
0.000002708,0.01168
0.000002709,0.01168
0.00000271,0.01168
0.000002711,0.01168
0.000002712,0.01168
0.000002713,0.01168
0.000002714,0.01168
0.000002715,0.01168
0.000002716,0.01168
0.000002717,0.01168
0.000002718,0.01168
0.000002719,0.01168
0.00000272,0.01168
0.000002721,0.01168
0.000002722,0.01168
0.000002723,0.01168
0.000002724,0.01168
0.000002725,0.01168
0.000002726,0.01168
0.000002727,0.01168
0.000002728,0.01168
0.000002729,0.01168
0.00000273,0.01168
0.000002731,0.01168
0.000002732,0.01168
0.000002733,0.01168
0.000002734,0.01168
0.000002735,0.01168
0.000002736,0.01168
0.000002737,0.01168
0.000002738,0.01168
0.000002739,0.01168
0.00000274,0.01168
0.000002741,0.01168
0.000002742,0.01168
0.000002743,0.01168
0.000002744,0.01168
0.000002745,0.01168
0.000002746,0.01168
0.000002747,0.01168
0.000002748,0.01168
0.000002749,0.01168
0.00000275,0.01168
0.000002751,0.01168
0.000002752,0.01168
0.000002753,0.01168
0.000002754,0.01168
0.000002755,0.01168
0.000002756,0.01168
0.000002757,0.01168
0.000002758,0.01168
0.000002759,0.01168
0.00000276,0.01168
0.000002761,0.01168
0.000002762,0.01168
0.000002763,0.01168
0.000002764,0.01168
0.000002765,0.01168
0.000002766,0.01168
0.000002767,0.01168
0.000002768,0.01168
0.000002769,0.01168
0.00000277,0.01168
0.000002771,0.01168
0.000002772,0.01168
0.000002773,0.01168
0.000002774,0.01168
0.000002775,0.01168
0.000002776,0.01168
0.000002777,0.01168
0.000002778,0.01168
0.000002779,0.01168
0.00000278,0.01168
0.000002781,0.01168
0.000002782,0.01168
0.000002783,0.01168
0.000002784,0.01168
0.000002785,0.01168
0.000002786,0.01168
0.000002787,0.01168
0.000002788,0.01168
0.000002789,0.01168
0.00000279,0.01168
0.000002791,0.01168
0.000002792,0.01168
0.000002793,0.01168
0.000002794,0.01168
0.000002795,0.01168
0.000002796,0.01168
0.000002797,0.01168
0.000002798,0.01168
0.000002799,0.01168
